# nm 	 mW/m2/nm
692.99	1458.58
693.95	1461.51
694.91	1443.36
695.88	1452.49
696.84	1452.38
697.8	1422.52
698.76	1458.06
699.72	1449.55
700.68	1426.66
701.64	1419.93
702.59	1426.56
703.55	1432.21
704.51	1445.92
705.47	1436.23
706.43	1417.3
707.38	1419.8
708.34	1407.49
709.29	1391.61
710.25	1405.39
711.21	1381.99
712.16	1373.43
713.12	1373.31
714.07	1379.03