#	measured	spectral	responses	for	each	band	of	the	Sentinel-2A	MultiSpectral	Instrument	(MSI)
#	downloaded	from	S2-SRF_COPE-GSEG-EOPG-TN-15-0007_3.0.xlsx									
429	0.004392062											
430	0.029008099											
431	0.118745933											
432	0.323875058											
433	0.572819207											
434	0.714727494											
435	0.761967778											
436	0.789297016											
437	0.808623866											
438	0.810893815											
439	0.824198756											
440	0.854158107											
441	0.870790877											
442	0.887310969											
443	0.926199242											
444	0.982281495											
445	1											
446	0.975238202											
447	0.93596338											
448	0.889971481											
449	0.850210477											
450	0.825694526											
451	0.783902388											
452	0.614174215											
453	0.330071087											
454	0.124108313											
455	0.04365694											
456	0.014749595											
457	0.00030266											
458	0											
