# nm 	 mW/m2/nm
2078	105.597674
2079	104.79
2080	104.187907
2081	104.235909
2082	104.132558
2083	103.395581
2084	103.094186
2085	103.639535
2086	103.994091
2087	103.949773
2088	103.781818
2089	103.618182
2090	103.322727
2091	102.286364
2092	100.808182
2093	100.750698
2094	101.233636
2095	100.986364
2096	101.0
2097	101.376279
2098	101.436667
2099	101.379091
2100	101.294545
2101	101.245455
2102	101.012889
2103	100.751364
2104	100.818667
2105	101.058182
2106	100.967273
2107	100.740667
2108	100.313182
2109	99.376889
2110	98.94
2111	99.360444
2112	99.541333
2113	99.336
2114	99.267556
2115	99.071333
2116	98.098889
2117	97.526667
2118	97.868889
2119	97.764
2120	97.358444
2121	97.332444
2122	97.255333
2123	96.685778
2124	96.128667
2125	96.202222
2126	96.25
2127	96.191739
2128	96.468222
2129	96.512609
2130	96.348444
2131	96.397391
2132	96.370435
2133	96.163913
2134	95.847826
2135	94.819111
2136	94.19
2137	94.734783
2138	95.326667
2139	95.187826
2140	95.102174
2141	95.13
2142	95.038913
2143	94.834783
2144	94.57087
2145	94.11
2146	93.875217
2147	94.115217
2148	94.33
2149	94.209348
2150	94.013696
2151	93.81
2152	93.442609
2153	93.114894
2154	92.985652
2155	92.977391
2156	92.906522
2157	92.764565
2158	92.538936
2159	92.239565
2160	91.909783
2161	91.447447
2162	90.867391
2163	90.127234
2164	88.553261
2165	84.806383
2166	82.036596
2167	83.421064
2168	86.812128
2169	88.734468
2170	89.511489
2171	89.738085
2172	89.828298
2173	89.848085
2174	89.83875
2175	89.634468
2176	89.220833
2177	88.740417
2178	88.03875
2179	88.001915
2180	88.831915
2181	88.963617
2182	88.153191
2183	88.029375
2184	88.58
2185	88.88
2186	88.8075
2187	88.025833
2188	86.709787
2189	86.177083
2190	86.775
2191	87.335
2192	87.398333
2193	87.145
2194	86.908542
2195	86.6875
2196	86.465625
2197	86.303333
2198	86.200833
2199	86.052083
2200	85.815
2201	85.578776
2202	85.426327
2203	85.372653
2204	85.25449
2205	84.318571
2206	82.663333
2207	82.077143
2208	82.633878
2209	83.289796
2210	83.787708
2211	84.153469
2212	84.029592
2213	83.847959
2214	83.681429
2215	83.378367
2216	82.828163
2217	82.451837
2218	82.597143
2219	82.901633
2220	82.91551
2221	82.738
2222	82.560408
2223	82.398571
2224	82.224898
2225	81.693
2226	81.0764
2227	80.915714
2228	81.214694
2229	81.3932
2230	81.342
2231	81.203
2232	81.118571
2233	81.0668
2234	80.9008
2235	80.6952
2236	80.5036
2237	80.0796
2238	79.4096
2239	79.0452
2240	79.3056
2241	79.546
2242	79.335
2243	79.082
2244	79.136667
2245	79.2168
2246	79.0512
2247	78.5264
2248	78.186
2249	78.2238
2250	78.40098
2251	78.302941
2252	78.12
2253	77.565294
2254	76.996863
2255	76.867059
2256	77.149608
2257	77.303333
2258	77.385882
2259	77.382353
2260	77.229804
2261	76.697647
2262	75.960784
2263	75.874902
2264	76.223922
2265	76.261154
2266	76.083529
2267	76.161765
2268	76.156923
2269	76.063846
2270	75.823269
2271	75.643846
2272	75.653529
2273	75.662353
2274	75.342308
2275	75.115769
2276	75.156154
2277	75.27
2278	75.142692
2279	74.948077
2280	74.215
2281	73.013077
2282	72.661538
2283	73.307308
2284	73.774231
2285	73.714615
2286	73.66
2287	73.674615
2288	73.625385
2289	73.523019
2290	73.371132
2291	73.20434
2292	72.92
2293	72.143269
2294	71.471538
2295	71.283962
2296	71.219623
2297	71.12434
2298	71.36717
2299	71.706792
2300	71.8
2301	71.801698
2302	71.820566
2303	71.693585
2304	71.532642
2305	71.441887
2306	71.405283
2307	71.34037
2308	71.143208
2309	70.922075
2310	70.83
2311	70.837358
2312	70.782963
2313	70.630556
2314	70.283704
2315	69.983704
2316	69.725472
2317	69.601111
2318	69.405094
2319	69.449815
2320	69.631296
